time;V(in);V(n);V(n.p);V(p)
0.000000000000000e+00;3.000000e+00;3.999902e+00;2.999910e+00;9.999911e-01
7.142856940843349e-11;2.999986e+00;3.999902e+00;2.999911e+00;9.999910e-01
1.428571388168670e-10;2.999971e+00;3.999902e+00;2.999911e+00;9.999909e-01
2.142857082253005e-10;2.999957e+00;3.999902e+00;2.999911e+00;9.999907e-01
2.857142776337340e-10;2.999943e+00;3.999902e+00;2.999911e+00;9.999905e-01
3.571428470421675e-10;2.999929e+00;3.999901e+00;2.999911e+00;9.999903e-01
4.285714164506010e-10;2.999914e+00;3.999901e+00;2.999911e+00;9.999900e-01
4.999999858590343e-10;2.999900e+00;3.999901e+00;2.999912e+00;9.999896e-01
9.999999717180685e-10;2.999800e+00;3.999901e+00;2.999913e+00;9.999877e-01
1.999999943436137e-09;2.999600e+00;3.999898e+00;2.999913e+00;9.999855e-01
3.999999886872274e-09;2.999200e+00;3.999883e+00;2.999891e+00;9.999921e-01
6.473136670236326e-09;2.998705e+00;3.999833e+00;2.999802e+00;1.000031e+00
9.245373978557217e-09;2.998151e+00;3.999724e+00;2.999595e+00;1.000129e+00
1.190505582469980e-08;2.997619e+00;3.999555e+00;2.999266e+00;1.000289e+00
1.479041208821527e-08;2.997042e+00;3.999303e+00;2.998772e+00;1.000532e+00
1.750338569810831e-08;2.996499e+00;3.999012e+00;2.998196e+00;1.000816e+00
2.143071615469945e-08;2.995714e+00;3.998536e+00;2.997253e+00;1.001282e+00
3.125002318491820e-08;2.993750e+00;3.997321e+00;2.994839e+00;1.002482e+00
3.588294845613198e-08;2.992823e+00;3.996794e+00;2.993788e+00;1.003006e+00
4.115539324369086e-08;2.991769e+00;3.996234e+00;2.992671e+00;1.003563e+00
4.846886567583311e-08;2.990306e+00;3.995486e+00;2.991177e+00;1.004309e+00
7.358230076511855e-08;2.985284e+00;3.992900e+00;2.986005e+00;1.006895e+00
8.804498787013237e-08;2.982391e+00;3.991419e+00;2.983042e+00;1.008378e+00
1.035722052076728e-07;2.979285e+00;3.989844e+00;2.979890e+00;1.009954e+00
1.251628180765954e-07;2.974967e+00;3.987664e+00;2.975529e+00;1.012135e+00
1.497480935672615e-07;2.970050e+00;3.985191e+00;2.970582e+00;1.014610e+00
1.935187378318952e-07;2.961296e+00;3.980803e+00;2.961803e+00;1.018999e+00
3.014379176335516e-07;2.939713e+00;3.970004e+00;2.940204e+00;1.029799e+00
9.587101794001873e-07;2.808258e+00;3.904272e+00;2.808752e+00;1.095520e+00
1.615982441166823e-06;2.676804e+00;3.838540e+00;2.677300e+00;1.161240e+00
2.273254702933458e-06;2.545349e+00;3.772806e+00;2.545849e+00;1.226957e+00
2.930526964700094e-06;2.413895e+00;3.707071e+00;2.414399e+00;1.292672e+00
3.587799226466730e-06;2.282440e+00;3.641335e+00;2.282950e+00;1.358385e+00
4.245071488233365e-06;2.150986e+00;3.575597e+00;2.151502e+00;1.424096e+00
4.902343749999999e-06;2.019531e+00;3.509858e+00;2.020054e+00;1.489804e+00
5.000000000000000e-06;2.000000e+00;3.500091e+00;2.000524e+00;1.499568e+00
5.000270924614278e-06;2.000054e+00;3.500064e+00;2.000468e+00;1.499597e+00
5.000812773842835e-06;2.000163e+00;3.500011e+00;2.000354e+00;1.499657e+00
5.001896472299950e-06;2.000379e+00;3.499907e+00;2.000131e+00;1.499776e+00
5.003523772616559e-06;2.000705e+00;3.499762e+00;1.999819e+00;1.499943e+00
5.005457855281847e-06;2.001091e+00;3.499622e+00;1.999512e+00;1.500110e+00
5.007556272515874e-06;2.001511e+00;3.499531e+00;1.999302e+00;1.500229e+00
5.009972016539244e-06;2.001994e+00;3.499520e+00;1.999247e+00;1.500272e+00
5.012429733028709e-06;2.002486e+00;3.499623e+00;1.999423e+00;1.500200e+00
5.015666718571630e-06;2.003133e+00;3.499914e+00;1.999967e+00;1.499947e+00
5.019631585103236e-06;2.003926e+00;3.500424e+00;2.000946e+00;1.499478e+00
5.023680439179542e-06;2.004736e+00;3.501034e+00;2.002132e+00;1.498902e+00
5.031537074989152e-06;2.006307e+00;3.502203e+00;2.004429e+00;1.497774e+00
5.036019887732609e-06;2.007204e+00;3.502776e+00;2.005565e+00;1.497212e+00
5.040636198381607e-06;2.008127e+00;3.503302e+00;2.006609e+00;1.496693e+00
5.046885857185242e-06;2.009377e+00;3.503961e+00;2.007923e+00;1.496038e+00
5.065818456487889e-06;2.013164e+00;3.505961e+00;2.011922e+00;1.494038e+00
5.076286788835543e-06;2.015257e+00;3.507077e+00;2.014159e+00;1.492918e+00
5.088209299985144e-06;2.017642e+00;3.508324e+00;2.016657e+00;1.491666e+00
5.101478903157337e-06;2.020296e+00;3.509689e+00;2.019393e+00;1.490295e+00
5.117207201414704e-06;2.023442e+00;3.511295e+00;2.022611e+00;1.488684e+00
5.136301534643768e-06;2.027260e+00;3.513232e+00;2.026490e+00;1.486742e+00
5.166529935414597e-06;2.033306e+00;3.516279e+00;2.032589e+00;1.483690e+00
5.208700882128714e-06;2.041740e+00;3.520512e+00;2.041059e+00;1.479453e+00
5.247788068728190e-06;2.049558e+00;3.524427e+00;2.048890e+00;1.475537e+00
5.422722261287028e-06;2.084545e+00;3.541921e+00;2.083882e+00;1.458039e+00
5.597656453845866e-06;2.119531e+00;3.559414e+00;2.118872e+00;1.440542e+00
5.772590646404703e-06;2.154518e+00;3.576907e+00;2.153862e+00;1.423045e+00
5.947524838963541e-06;2.189505e+00;3.594399e+00;2.188851e+00;1.405549e+00
6.122459031522378e-06;2.224492e+00;3.611891e+00;2.223838e+00;1.388053e+00
6.297393224081216e-06;2.259479e+00;3.629383e+00;2.258825e+00;1.370558e+00
6.472327416640053e-06;2.294466e+00;3.646874e+00;2.293811e+00;1.353063e+00
9.999999999999999e-06;3.000000e+00;3.999648e+00;2.999336e+00;1.000312e+00
1.000026916811970e-05;2.999946e+00;3.999675e+00;2.999391e+00;1.000284e+00
1.000080750435909e-05;2.999839e+00;3.999727e+00;2.999501e+00;1.000226e+00
1.000188417683788e-05;2.999623e+00;3.999831e+00;2.999718e+00;1.000113e+00
1.000351992848699e-05;2.999296e+00;3.999976e+00;3.000023e+00;9.999528e-01
1.000545467725608e-05;2.998909e+00;4.000115e+00;3.000319e+00;9.997968e-01
1.000755686982816e-05;2.998489e+00;4.000206e+00;3.000517e+00;9.996890e-01
1.000997835403123e-05;2.998004e+00;4.000217e+00;3.000557e+00;9.996600e-01
1.001242783141270e-05;2.997514e+00;4.000115e+00;3.000369e+00;9.997455e-01
1.001566436541965e-05;2.996867e+00;3.999825e+00;2.999811e+00;1.000015e+00
1.001962824406151e-05;2.996074e+00;3.999319e+00;2.998818e+00;1.000501e+00
1.002488557996458e-05;2.995023e+00;3.998537e+00;2.997275e+00;1.001262e+00
1.002910764181380e-05;2.994179e+00;3.997907e+00;2.996028e+00;1.001879e+00
1.003309311394542e-05;2.993381e+00;3.997359e+00;2.994939e+00;1.002419e+00
1.003639398310942e-05;2.992721e+00;3.996953e+00;2.994131e+00;1.002821e+00
1.004024821770353e-05;2.991950e+00;3.996522e+00;2.993273e+00;1.003249e+00
1.004394294468694e-05;2.991211e+00;3.996134e+00;2.992499e+00;1.003635e+00
1.007126097626409e-05;2.985748e+00;3.993248e+00;2.986730e+00;1.006519e+00
1.008180204533754e-05;2.983639e+00;3.992136e+00;2.984503e+00;1.007633e+00
1.009433173789529e-05;2.981134e+00;3.990839e+00;2.981906e+00;1.008933e+00
1.011235442049604e-05;2.977529e+00;3.988994e+00;2.978213e+00;1.010782e+00
1.013232678847758e-05;2.973535e+00;3.986963e+00;2.974147e+00;1.012816e+00
1.015526980952875e-05;2.968946e+00;3.984646e+00;2.969511e+00;1.015135e+00
1.019653528100275e-05;2.960693e+00;3.980500e+00;2.961216e+00;1.019284e+00
1.023427811567434e-05;2.953144e+00;3.976718e+00;2.953650e+00;1.023068e+00
1.036076450262697e-05;2.927847e+00;3.964065e+00;2.928341e+00;1.035724e+00
1.100956153796597e-05;2.798088e+00;3.899184e+00;2.798583e+00;1.100601e+00
1.165835857330498e-05;2.668328e+00;3.834300e+00;2.668826e+00;1.165475e+00
1.230715560864399e-05;2.538569e+00;3.769415e+00;2.539070e+00;1.230346e+00
1.295595264398300e-05;2.408810e+00;3.704529e+00;2.409314e+00;1.295215e+00
1.360474967932201e-05;2.279050e+00;3.639640e+00;2.279560e+00;1.360080e+00
1.425354671466101e-05;2.149291e+00;3.574750e+00;2.149806e+00;1.424944e+00
1.490234375000002e-05;2.019531e+00;3.509858e+00;2.020054e+00;1.489804e+00
1.500000000000002e-05;2.000000e+00;3.500091e+00;2.000524e+00;1.499568e+00
1.500028170071164e-05;2.000056e+00;3.500063e+00;2.000465e+00;1.499598e+00
1.500084510213488e-05;2.000169e+00;3.500008e+00;2.000347e+00;1.499660e+00
1.500197190498135e-05;2.000394e+00;3.499899e+00;2.000115e+00;1.499784e+00
1.500360617611731e-05;2.000721e+00;3.499755e+00;1.999804e+00;1.499951e+00
1.500552403564270e-05;2.001105e+00;3.499618e+00;1.999503e+00;1.500115e+00
1.500762546014467e-05;2.001525e+00;3.499529e+00;1.999297e+00;1.500232e+00
1.501003538873473e-05;2.002007e+00;3.499521e+00;1.999249e+00;1.500272e+00
1.501251642347089e-05;2.002503e+00;3.499629e+00;1.999433e+00;1.500195e+00
1.501576595137386e-05;2.003153e+00;3.499925e+00;1.999989e+00;1.499937e+00
1.501978004577772e-05;2.003956e+00;3.500445e+00;2.000987e+00;1.499458e+00
1.502380161841971e-05;2.004760e+00;3.501053e+00;2.002169e+00;1.498884e+00
1.503168507670100e-05;2.006337e+00;3.502223e+00;2.004469e+00;1.497754e+00
1.503615902631525e-05;2.007232e+00;3.502793e+00;2.005598e+00;1.497195e+00
1.504080774403086e-05;2.008162e+00;3.503320e+00;2.006646e+00;1.496675e+00
1.504713864056355e-05;2.009428e+00;3.503987e+00;2.007975e+00;1.496012e+00
1.506607704181130e-05;2.013215e+00;3.505988e+00;2.011978e+00;1.494010e+00
1.507686308698978e-05;2.015373e+00;3.507138e+00;2.014280e+00;1.492858e+00
1.508925846993324e-05;2.017852e+00;3.508432e+00;2.016875e+00;1.491557e+00
1.510262183872105e-05;2.020524e+00;3.509806e+00;2.019628e+00;1.490178e+00
1.511842798626957e-05;2.023686e+00;3.511419e+00;2.022860e+00;1.488559e+00
1.513750750607063e-05;2.027502e+00;3.513354e+00;2.026734e+00;1.486620e+00
1.517027641751272e-05;2.034055e+00;3.516656e+00;2.033342e+00;1.483313e+00
1.521124041472749e-05;2.042248e+00;3.520767e+00;2.041568e+00;1.479199e+00
1.525155329967805e-05;2.050311e+00;3.524804e+00;2.049644e+00;1.475160e+00
1.546905440244030e-05;2.093811e+00;3.546554e+00;2.093149e+00;1.453404e+00
1.568655550520254e-05;2.137311e+00;3.568303e+00;2.136653e+00;1.431650e+00
1.590405660796479e-05;2.180811e+00;3.590052e+00;2.180156e+00;1.409896e+00
1.612155771072703e-05;2.224311e+00;3.611801e+00;2.223658e+00;1.388143e+00
1.633905881348928e-05;2.267812e+00;3.633550e+00;2.267159e+00;1.366391e+00
1.655655991625153e-05;2.311312e+00;3.655298e+00;2.310658e+00;1.344640e+00
1.677406101901377e-05;2.354812e+00;3.677047e+00;2.354157e+00;1.322889e+00
2.000000000000002e-05;3.000000e+00;3.999648e+00;2.999336e+00;1.000312e+00
2.000026574956036e-05;2.999947e+00;3.999674e+00;2.999390e+00;1.000284e+00
2.000079724868104e-05;2.999840e+00;3.999727e+00;2.999499e+00;1.000227e+00
2.000186024692241e-05;2.999628e+00;3.999829e+00;2.999714e+00;1.000115e+00
2.000349440003789e-05;2.999301e+00;3.999974e+00;3.000019e+00;9.999552e-01
2.000543421564922e-05;2.998913e+00;4.000114e+00;3.000316e+00;9.997983e-01
2.000753513452848e-05;2.998493e+00;4.000206e+00;3.000516e+00;9.996898e-01
2.000995867456157e-05;2.998008e+00;4.000217e+00;3.000558e+00;9.996598e-01
2.001240079669931e-05;2.997520e+00;4.000116e+00;3.000372e+00;9.997439e-01
2.001563362121976e-05;2.996873e+00;3.999829e+00;2.999818e+00;1.000011e+00
2.001958203985217e-05;2.996083e+00;3.999325e+00;2.998831e+00;1.000494e+00
2.002484629751036e-05;2.995031e+00;3.998543e+00;2.997287e+00;1.001256e+00
2.002908378246874e-05;2.994183e+00;3.997910e+00;2.996035e+00;1.001875e+00
2.003307011985121e-05;2.993386e+00;3.997362e+00;2.994945e+00;1.002416e+00
2.003637019959750e-05;2.992726e+00;3.996955e+00;2.994137e+00;1.002819e+00
2.004022483225031e-05;2.991955e+00;3.996525e+00;2.993279e+00;1.003246e+00
2.004391510747305e-05;2.991217e+00;3.996137e+00;2.992505e+00;1.003632e+00
2.007120500070185e-05;2.985759e+00;3.993254e+00;2.986742e+00;1.006513e+00
2.008174085703636e-05;2.983652e+00;3.992143e+00;2.984516e+00;1.007627e+00
2.009427208092967e-05;2.981146e+00;3.990845e+00;2.981919e+00;1.008927e+00
2.011218799516456e-05;2.977562e+00;3.989011e+00;2.978246e+00;1.010765e+00
2.013228891570156e-05;2.973542e+00;3.986967e+00;2.974155e+00;1.012812e+00
2.015505725604762e-05;2.968989e+00;3.984668e+00;2.969554e+00;1.015113e+00
2.019655160205107e-05;2.960690e+00;3.980498e+00;2.961213e+00;1.019285e+00
2.023408865962614e-05;2.953182e+00;3.976737e+00;2.953688e+00;1.023049e+00
2.036037944082888e-05;2.927924e+00;3.964104e+00;2.928418e+00;1.035686e+00
2.100923148499619e-05;2.798154e+00;3.899217e+00;2.798649e+00;1.100568e+00
2.165808352916350e-05;2.668383e+00;3.834328e+00;2.668881e+00;1.165447e+00
2.230693557333081e-05;2.538613e+00;3.769438e+00;2.539114e+00;1.230324e+00
2.295578761749811e-05;2.408842e+00;3.704545e+00;2.409347e+00;1.295198e+00
2.360463966166542e-05;2.279072e+00;3.639651e+00;2.279582e+00;1.360070e+00
2.425349170583273e-05;2.149302e+00;3.574756e+00;2.149817e+00;1.424938e+00
2.490234375000004e-05;2.019531e+00;3.509858e+00;2.020054e+00;1.489804e+00
2.500000000000004e-05;2.000000e+00;3.500091e+00;2.000524e+00;1.499568e+00
2.500028170073399e-05;2.000056e+00;3.500063e+00;2.000465e+00;1.499598e+00
2.500084510220190e-05;2.000169e+00;3.500008e+00;2.000347e+00;1.499660e+00
2.500197190513771e-05;2.000394e+00;3.499899e+00;2.000115e+00;1.499784e+00
2.500360618205499e-05;2.000721e+00;3.499755e+00;1.999804e+00;1.499951e+00
2.500552403926854e-05;2.001105e+00;3.499618e+00;1.999503e+00;1.500115e+00
2.500762546019612e-05;2.001525e+00;3.499529e+00;1.999297e+00;1.500232e+00
2.501003538950032e-05;2.002007e+00;3.499521e+00;1.999249e+00;1.500272e+00
2.501251642409712e-05;2.002503e+00;3.499629e+00;1.999433e+00;1.500195e+00
2.501576595303398e-05;2.003153e+00;3.499925e+00;1.999989e+00;1.499937e+00
2.501978004755303e-05;2.003956e+00;3.500445e+00;2.000987e+00;1.499458e+00
2.502380162018337e-05;2.004760e+00;3.501053e+00;2.002169e+00;1.498884e+00
2.503168507834691e-05;2.006337e+00;3.502223e+00;2.004469e+00;1.497754e+00
2.503615902785975e-05;2.007232e+00;3.502793e+00;2.005598e+00;1.497195e+00
2.504080774611788e-05;2.008162e+00;3.503320e+00;2.006646e+00;1.496675e+00
2.504713864350211e-05;2.009428e+00;3.503987e+00;2.007975e+00;1.496012e+00
2.506607704486573e-05;2.013215e+00;3.505988e+00;2.011978e+00;1.494010e+00
2.507686309440075e-05;2.015373e+00;3.507138e+00;2.014280e+00;1.492857e+00
2.508925848320304e-05;2.017852e+00;3.508432e+00;2.016875e+00;1.491557e+00
2.510262185346912e-05;2.020524e+00;3.509806e+00;2.019628e+00;1.490178e+00
2.511842800247280e-05;2.023686e+00;3.511419e+00;2.022860e+00;1.488559e+00
2.513750752267433e-05;2.027502e+00;3.513354e+00;2.026734e+00;1.486620e+00
2.517027646956736e-05;2.034055e+00;3.516656e+00;2.033342e+00;1.483313e+00
2.521124045149449e-05;2.042248e+00;3.520767e+00;2.041568e+00;1.479199e+00
2.525155335406202e-05;2.050311e+00;3.524804e+00;2.049644e+00;1.475160e+00
2.546905446722546e-05;2.093811e+00;3.546554e+00;2.093149e+00;1.453404e+00
2.568655558038891e-05;2.137311e+00;3.568303e+00;2.136653e+00;1.431650e+00
2.590405669355236e-05;2.180811e+00;3.590052e+00;2.180156e+00;1.409896e+00
2.612155780671581e-05;2.224311e+00;3.611801e+00;2.223658e+00;1.388143e+00
2.633905891987926e-05;2.267812e+00;3.633550e+00;2.267159e+00;1.366391e+00
2.655656003304270e-05;2.311312e+00;3.655298e+00;2.310658e+00;1.344640e+00
2.677406114620615e-05;2.354812e+00;3.677047e+00;2.354157e+00;1.322889e+00
3.000000000000004e-05;3.000000e+00;3.999648e+00;2.999336e+00;1.000312e+00
3.000026574816604e-05;2.999947e+00;3.999674e+00;2.999390e+00;1.000284e+00
3.000079724449805e-05;2.999840e+00;3.999727e+00;2.999499e+00;1.000227e+00
3.000186023716205e-05;2.999628e+00;3.999829e+00;2.999714e+00;1.000115e+00
3.000349438939735e-05;2.999301e+00;3.999974e+00;3.000019e+00;9.999552e-01
3.000543420721141e-05;2.998913e+00;4.000114e+00;3.000316e+00;9.997983e-01
3.000753512570833e-05;2.998493e+00;4.000206e+00;3.000516e+00;9.996898e-01
3.000995866656841e-05;2.998008e+00;4.000217e+00;3.000558e+00;9.996598e-01
3.001240078572614e-05;2.997520e+00;4.000116e+00;3.000372e+00;9.997439e-01
3.001563360871322e-05;2.996873e+00;3.999829e+00;2.999818e+00;1.000011e+00
3.001958202109955e-05;2.996083e+00;3.999325e+00;2.998831e+00;1.000494e+00
3.002484628156391e-05;2.995031e+00;3.998543e+00;2.997287e+00;1.001256e+00
3.002908377280395e-05;2.994183e+00;3.997910e+00;2.996035e+00;1.001875e+00
3.003307011055104e-05;2.993386e+00;3.997362e+00;2.994945e+00;1.002416e+00
3.003637018998215e-05;2.992726e+00;3.996955e+00;2.994137e+00;1.002819e+00
3.004022482280379e-05;2.991955e+00;3.996525e+00;2.993279e+00;1.003246e+00
3.004391509622432e-05;2.991217e+00;3.996137e+00;2.992505e+00;1.003632e+00
3.007120497816894e-05;2.985759e+00;3.993254e+00;2.986742e+00;1.006513e+00
3.008174083242677e-05;2.983652e+00;3.992143e+00;2.984516e+00;1.007627e+00
3.009427205697909e-05;2.981146e+00;3.990845e+00;2.981919e+00;1.008927e+00
3.011218792850054e-05;2.977562e+00;3.989011e+00;2.978246e+00;1.010765e+00
3.013228890134463e-05;2.973542e+00;3.986967e+00;2.974155e+00;1.012812e+00
3.015505717173604e-05;2.968989e+00;3.984668e+00;2.969554e+00;1.015113e+00
3.019655161064953e-05;2.960690e+00;3.980498e+00;2.961213e+00;1.019285e+00
3.023408858590832e-05;2.953182e+00;3.976737e+00;2.953688e+00;1.023049e+00
3.036037929059436e-05;2.927924e+00;3.964104e+00;2.928418e+00;1.035686e+00
3.100923135622374e-05;2.798154e+00;3.899217e+00;2.798649e+00;1.100568e+00
3.165808342185313e-05;2.668383e+00;3.834328e+00;2.668881e+00;1.165447e+00
3.230693548748251e-05;2.538613e+00;3.769438e+00;2.539114e+00;1.230324e+00
3.295578755311190e-05;2.408842e+00;3.704545e+00;2.409347e+00;1.295198e+00
3.360463961874128e-05;2.279072e+00;3.639651e+00;2.279582e+00;1.360070e+00
3.425349168437067e-05;2.149302e+00;3.574756e+00;2.149817e+00;1.424938e+00
3.490234375000006e-05;2.019531e+00;3.509858e+00;2.020054e+00;1.489804e+00
3.500000000000006e-05;2.000000e+00;3.500091e+00;2.000524e+00;1.499568e+00
3.500028170073401e-05;2.000056e+00;3.500063e+00;2.000465e+00;1.499598e+00
3.500084510220192e-05;2.000169e+00;3.500008e+00;2.000347e+00;1.499660e+00
3.500197190513773e-05;2.000394e+00;3.499899e+00;2.000115e+00;1.499784e+00
3.500360618205833e-05;2.000721e+00;3.499755e+00;1.999804e+00;1.499951e+00
3.500552403927049e-05;2.001105e+00;3.499618e+00;1.999503e+00;1.500115e+00
3.500762546019627e-05;2.001525e+00;3.499529e+00;1.999297e+00;1.500232e+00
3.501003538950089e-05;2.002007e+00;3.499521e+00;1.999249e+00;1.500272e+00
3.501251642409828e-05;2.002503e+00;3.499629e+00;1.999433e+00;1.500195e+00
3.501576595303634e-05;2.003153e+00;3.499925e+00;1.999989e+00;1.499937e+00
3.501978004755676e-05;2.003956e+00;3.500445e+00;2.000987e+00;1.499458e+00
3.502380162018663e-05;2.004760e+00;3.501053e+00;2.002169e+00;1.498884e+00
3.503168507835158e-05;2.006337e+00;3.502223e+00;2.004469e+00;1.497754e+00
3.503615902786420e-05;2.007232e+00;3.502793e+00;2.005598e+00;1.497195e+00
3.504080774612401e-05;2.008162e+00;3.503320e+00;2.006646e+00;1.496675e+00
3.504713864351224e-05;2.009428e+00;3.503987e+00;2.007975e+00;1.496012e+00
3.506607704487775e-05;2.013215e+00;3.505988e+00;2.011978e+00;1.494010e+00
3.507686309442901e-05;2.015373e+00;3.507138e+00;2.014280e+00;1.492857e+00
3.508925848325341e-05;2.017852e+00;3.508432e+00;2.016875e+00;1.491557e+00
3.510262185352493e-05;2.020524e+00;3.509806e+00;2.019628e+00;1.490178e+00
3.511842800254039e-05;2.023686e+00;3.511419e+00;2.022860e+00;1.488559e+00
3.513750752274821e-05;2.027502e+00;3.513354e+00;2.026734e+00;1.486620e+00
3.517027646978090e-05;2.034055e+00;3.516656e+00;2.033342e+00;1.483313e+00
3.521124045166955e-05;2.042248e+00;3.520767e+00;2.041568e+00;1.479199e+00
3.525155335435254e-05;2.050311e+00;3.524804e+00;2.049644e+00;1.475160e+00
3.546905446755924e-05;2.093811e+00;3.546554e+00;2.093149e+00;1.453404e+00
3.568655558076595e-05;2.137311e+00;3.568303e+00;2.136653e+00;1.431650e+00
3.590405669397265e-05;2.180811e+00;3.590052e+00;2.180156e+00;1.409896e+00
3.612155780717935e-05;2.224311e+00;3.611801e+00;2.223658e+00;1.388143e+00
3.633905892038605e-05;2.267812e+00;3.633550e+00;2.267159e+00;1.366391e+00
3.655656003359276e-05;2.311312e+00;3.655298e+00;2.310658e+00;1.344640e+00
3.677406114679946e-05;2.354812e+00;3.677047e+00;2.354157e+00;1.322889e+00
4.000000000000006e-05;3.000000e+00;3.999648e+00;2.999336e+00;1.000312e+00
4.000026574815944e-05;2.999947e+00;3.999674e+00;2.999390e+00;1.000284e+00
4.000079724447819e-05;2.999840e+00;3.999727e+00;2.999499e+00;1.000227e+00
4.000186023711570e-05;2.999628e+00;3.999829e+00;2.999714e+00;1.000115e+00
4.000349438934660e-05;2.999301e+00;3.999974e+00;3.000019e+00;9.999552e-01
4.000543420717113e-05;2.998913e+00;4.000114e+00;3.000316e+00;9.997983e-01
4.000753512566621e-05;2.998493e+00;4.000206e+00;3.000516e+00;9.996898e-01
4.000995866653014e-05;2.998008e+00;4.000217e+00;3.000558e+00;9.996598e-01
4.001240078567347e-05;2.997520e+00;4.000116e+00;3.000372e+00;9.997439e-01
4.001563360865308e-05;2.996873e+00;3.999829e+00;2.999818e+00;1.000011e+00
4.001958202100960e-05;2.996083e+00;3.999325e+00;2.998831e+00;1.000494e+00
4.002484628148722e-05;2.995031e+00;3.998543e+00;2.997287e+00;1.001256e+00
4.002908377275721e-05;2.994183e+00;3.997910e+00;2.996035e+00;1.001875e+00
4.003307011050584e-05;2.993386e+00;3.997362e+00;2.994945e+00;1.002416e+00
4.003637018993523e-05;2.992726e+00;3.996955e+00;2.994137e+00;1.002819e+00
4.004022482275752e-05;2.991955e+00;3.996525e+00;2.993279e+00;1.003246e+00
4.004391509616954e-05;2.991217e+00;3.996137e+00;2.992505e+00;1.003632e+00
4.007120497805712e-05;2.985759e+00;3.993254e+00;2.986742e+00;1.006513e+00
4.008174083230121e-05;2.983652e+00;3.992143e+00;2.984516e+00;1.007627e+00
4.009427205685483e-05;2.981146e+00;3.990845e+00;2.981919e+00;1.008927e+00
4.011218792815563e-05;2.977562e+00;3.989011e+00;2.978246e+00;1.010765e+00
4.013228890125446e-05;2.973542e+00;3.986967e+00;2.974155e+00;1.012812e+00
4.015505717129248e-05;2.968989e+00;3.984668e+00;2.969554e+00;1.015113e+00
4.019655161065787e-05;2.960690e+00;3.980498e+00;2.961213e+00;1.019285e+00
4.023408858550877e-05;2.953182e+00;3.976737e+00;2.953688e+00;1.023049e+00
4.036037928979701e-05;2.927924e+00;3.964104e+00;2.928418e+00;1.035686e+00
4.100923135554030e-05;2.798154e+00;3.899217e+00;2.798649e+00;1.100568e+00
4.165808342128359e-05;2.668383e+00;3.834328e+00;2.668881e+00;1.165447e+00
4.230693548702689e-05;2.538613e+00;3.769438e+00;2.539114e+00;1.230324e+00
4.295578755277019e-05;2.408842e+00;3.704545e+00;2.409347e+00;1.295198e+00
4.360463961851349e-05;2.279072e+00;3.639651e+00;2.279582e+00;1.360070e+00
4.425349168425678e-05;2.149302e+00;3.574756e+00;2.149817e+00;1.424938e+00
4.490234375000007e-05;2.019531e+00;3.509858e+00;2.020054e+00;1.489804e+00
4.500000000000008e-05;2.000000e+00;3.500091e+00;2.000524e+00;1.499568e+00
4.500028170073377e-05;2.000056e+00;3.500063e+00;2.000465e+00;1.499598e+00
4.500084510220115e-05;2.000169e+00;3.500008e+00;2.000347e+00;1.499660e+00
4.500197190513593e-05;2.000394e+00;3.499899e+00;2.000115e+00;1.499784e+00
4.500360618205608e-05;2.000721e+00;3.499755e+00;1.999804e+00;1.499951e+00
4.500552403926804e-05;2.001105e+00;3.499618e+00;1.999503e+00;1.500115e+00
4.500762546019350e-05;2.001525e+00;3.499529e+00;1.999297e+00;1.500232e+00
4.501003538949775e-05;2.002007e+00;3.499521e+00;1.999249e+00;1.500272e+00
4.501251642409359e-05;2.002503e+00;3.499629e+00;1.999433e+00;1.500195e+00
4.501576595303040e-05;2.003153e+00;3.499925e+00;1.999989e+00;1.499937e+00
4.501978004754804e-05;2.003956e+00;3.500445e+00;2.000987e+00;1.499458e+00
4.502380162017885e-05;2.004760e+00;3.501053e+00;2.002169e+00;1.498884e+00
4.503168507834181e-05;2.006337e+00;3.502223e+00;2.004469e+00;1.497754e+00
4.503615902785439e-05;2.007232e+00;3.502793e+00;2.005598e+00;1.497195e+00
4.504080774611155e-05;2.008162e+00;3.503320e+00;2.006646e+00;1.496675e+00
4.504713864349283e-05;2.009428e+00;3.503987e+00;2.007975e+00;1.496012e+00
4.506607704485236e-05;2.013215e+00;3.505988e+00;2.011978e+00;1.494010e+00
4.507686309437713e-05;2.015373e+00;3.507138e+00;2.014280e+00;1.492857e+00
4.508925848316508e-05;2.017852e+00;3.508432e+00;2.016875e+00;1.491557e+00
4.510262185342668e-05;2.020524e+00;3.509806e+00;2.019628e+00;1.490178e+00
4.511842800243892e-05;2.023686e+00;3.511419e+00;2.022860e+00;1.488559e+00
4.513750752265214e-05;2.027502e+00;3.513354e+00;2.026734e+00;1.486620e+00
4.517027646941476e-05;2.034055e+00;3.516656e+00;2.033342e+00;1.483313e+00
4.521124045143641e-05;2.042248e+00;3.520767e+00;2.041568e+00;1.479199e+00
4.525155335398773e-05;2.050311e+00;3.524804e+00;2.049644e+00;1.475160e+00
4.546905446714413e-05;2.093811e+00;3.546554e+00;2.093149e+00;1.453404e+00
4.568655558030052e-05;2.137311e+00;3.568303e+00;2.136653e+00;1.431650e+00
4.590405669345692e-05;2.180811e+00;3.590052e+00;2.180156e+00;1.409896e+00
4.612155780661332e-05;2.224311e+00;3.611801e+00;2.223658e+00;1.388143e+00
4.633905891976972e-05;2.267812e+00;3.633550e+00;2.267159e+00;1.366391e+00
4.655656003292611e-05;2.311312e+00;3.655298e+00;2.310658e+00;1.344640e+00
4.677406114608251e-05;2.354812e+00;3.677047e+00;2.354157e+00;1.322889e+00
5.000000000000008e-05;3.000000e+00;3.999648e+00;2.999336e+00;1.000312e+00
5.000026574816743e-05;2.999947e+00;3.999674e+00;2.999390e+00;1.000284e+00
5.000079724450213e-05;2.999840e+00;3.999727e+00;2.999499e+00;1.000227e+00
5.000186023717155e-05;2.999628e+00;3.999829e+00;2.999714e+00;1.000115e+00
5.000349438940764e-05;2.999301e+00;3.999974e+00;3.000019e+00;9.999552e-01
5.000543420721962e-05;2.998913e+00;4.000114e+00;3.000316e+00;9.997983e-01
5.000753512571688e-05;2.998493e+00;4.000206e+00;3.000516e+00;9.996898e-01
5.000995866657616e-05;2.998008e+00;4.000217e+00;3.000558e+00;9.996598e-01
5.001240078573664e-05;2.997520e+00;4.000116e+00;3.000372e+00;9.997439e-01
5.001563360872514e-05;2.996873e+00;3.999829e+00;2.999818e+00;1.000011e+00
5.001958202111737e-05;2.996083e+00;3.999325e+00;2.998831e+00;1.000494e+00
5.002484628157905e-05;2.995031e+00;3.998543e+00;2.997287e+00;1.001256e+00
5.002908377281317e-05;2.994183e+00;3.997910e+00;2.996035e+00;1.001875e+00
5.003307011055991e-05;2.993386e+00;3.997362e+00;2.994945e+00;1.002416e+00
5.003637018999143e-05;2.992726e+00;3.996955e+00;2.994137e+00;1.002819e+00
5.004022482281286e-05;2.991955e+00;3.996525e+00;2.993279e+00;1.003246e+00
5.004391509623527e-05;2.991217e+00;3.996137e+00;2.992505e+00;1.003632e+00
5.007120497818916e-05;2.985759e+00;3.993254e+00;2.986742e+00;1.006513e+00
5.008174083244243e-05;2.983652e+00;3.992143e+00;2.984516e+00;1.007627e+00
5.009427205698593e-05;2.981146e+00;3.990845e+00;2.981919e+00;1.008927e+00
5.011218792855719e-05;2.977562e+00;3.989011e+00;2.978246e+00;1.010765e+00
5.013228890133723e-05;2.973542e+00;3.986967e+00;2.974155e+00;1.012812e+00
5.015505717181421e-05;2.968989e+00;3.984668e+00;2.969554e+00;1.015113e+00
5.019655161060963e-05;2.960690e+00;3.980498e+00;2.961213e+00;1.019285e+00
5.023408858596556e-05;2.953182e+00;3.976737e+00;2.953688e+00;1.023049e+00
5.036037929077970e-05;2.927924e+00;3.964104e+00;2.928418e+00;1.035686e+00
5.100923135638261e-05;2.798154e+00;3.899217e+00;2.798649e+00;1.100568e+00
5.165808342198553e-05;2.668383e+00;3.834328e+00;2.668881e+00;1.165447e+00
5.230693548758844e-05;2.538613e+00;3.769438e+00;2.539114e+00;1.230324e+00
5.295578755319135e-05;2.408842e+00;3.704545e+00;2.409347e+00;1.295198e+00
5.360463961879427e-05;2.279072e+00;3.639651e+00;2.279582e+00;1.360070e+00
5.425349168439718e-05;2.149302e+00;3.574756e+00;2.149817e+00;1.424938e+00
5.490234375000009e-05;2.019531e+00;3.509858e+00;2.020054e+00;1.489804e+00
5.500000000000010e-05;2.000000e+00;3.500091e+00;2.000524e+00;1.499568e+00
5.500028170073392e-05;2.000056e+00;3.500063e+00;2.000465e+00;1.499598e+00
5.500084510220155e-05;2.000169e+00;3.500008e+00;2.000347e+00;1.499660e+00
5.500197190513682e-05;2.000394e+00;3.499899e+00;2.000115e+00;1.499784e+00
5.500360618205650e-05;2.000721e+00;3.499755e+00;1.999804e+00;1.499951e+00
5.500552403926914e-05;2.001105e+00;3.499618e+00;1.999503e+00;1.500115e+00
5.500762546019500e-05;2.001525e+00;3.499529e+00;1.999297e+00;1.500232e+00
5.501003538949945e-05;2.002007e+00;3.499521e+00;1.999249e+00;1.500272e+00
5.501251642409582e-05;2.002503e+00;3.499629e+00;1.999433e+00;1.500195e+00
5.501576595303297e-05;2.003153e+00;3.499925e+00;1.999989e+00;1.499937e+00
5.501978004755155e-05;2.003956e+00;3.500445e+00;2.000987e+00;1.499458e+00
5.502380162018206e-05;2.004760e+00;3.501053e+00;2.002169e+00;1.498884e+00
5.503168507834582e-05;2.006337e+00;3.502223e+00;2.004469e+00;1.497754e+00
5.503615902785858e-05;2.007232e+00;3.502793e+00;2.005598e+00;1.497195e+00
5.504080774611633e-05;2.008162e+00;3.503320e+00;2.006646e+00;1.496675e+00
5.504713864349990e-05;2.009428e+00;3.503987e+00;2.007975e+00;1.496012e+00
5.506607704486266e-05;2.013215e+00;3.505988e+00;2.011978e+00;1.494010e+00
5.507686309439489e-05;2.015373e+00;3.507138e+00;2.014280e+00;1.492857e+00
5.508925848319123e-05;2.017852e+00;3.508432e+00;2.016875e+00;1.491557e+00
5.510262185345464e-05;2.020524e+00;3.509806e+00;2.019628e+00;1.490178e+00
5.511842800246363e-05;2.023686e+00;3.511419e+00;2.022860e+00;1.488559e+00
5.513750752266992e-05;2.027502e+00;3.513354e+00;2.026734e+00;1.486620e+00
5.517027646951343e-05;2.034055e+00;3.516656e+00;2.033342e+00;1.483313e+00
5.521124045148325e-05;2.042248e+00;3.520767e+00;2.041568e+00;1.479199e+00
5.525155335406676e-05;2.050311e+00;3.524804e+00;2.049644e+00;1.475160e+00
5.546905446722109e-05;2.093811e+00;3.546554e+00;2.093149e+00;1.453404e+00
5.568655558037543e-05;2.137311e+00;3.568303e+00;2.136653e+00;1.431650e+00
5.590405669352976e-05;2.180811e+00;3.590052e+00;2.180156e+00;1.409896e+00
5.612155780668409e-05;2.224311e+00;3.611801e+00;2.223658e+00;1.388143e+00
5.633905891983843e-05;2.267812e+00;3.633550e+00;2.267159e+00;1.366391e+00
5.655656003299276e-05;2.311312e+00;3.655298e+00;2.310658e+00;1.344640e+00
5.677406114614709e-05;2.354812e+00;3.677047e+00;2.354157e+00;1.322889e+00
6.000000000000010e-05;3.000000e+00;3.999648e+00;2.999336e+00;1.000312e+00
6.000026574816673e-05;2.999947e+00;3.999674e+00;2.999390e+00;1.000284e+00
6.000079724450001e-05;2.999840e+00;3.999727e+00;2.999499e+00;1.000227e+00
6.000186023716656e-05;2.999628e+00;3.999829e+00;2.999714e+00;1.000115e+00
6.000349438940209e-05;2.999301e+00;3.999974e+00;3.000019e+00;9.999552e-01
6.000543420721529e-05;2.998913e+00;4.000114e+00;3.000316e+00;9.997983e-01
6.000753512571242e-05;2.998493e+00;4.000206e+00;3.000516e+00;9.996898e-01
6.000995866657213e-05;2.998008e+00;4.000217e+00;3.000558e+00;9.996598e-01
6.001240078573113e-05;2.997520e+00;4.000116e+00;3.000372e+00;9.997439e-01
6.001563360871882e-05;2.996873e+00;3.999829e+00;2.999818e+00;1.000011e+00
6.001958202110806e-05;2.996083e+00;3.999325e+00;2.998831e+00;1.000494e+00
6.002484628157110e-05;2.995031e+00;3.998543e+00;2.997287e+00;1.001256e+00
6.002908377280834e-05;2.994183e+00;3.997910e+00;2.996035e+00;1.001875e+00
6.003307011055530e-05;2.993386e+00;3.997362e+00;2.994945e+00;1.002416e+00
6.003637018998645e-05;2.992726e+00;3.996955e+00;2.994137e+00;1.002819e+00
6.004022482280806e-05;2.991955e+00;3.996525e+00;2.993279e+00;1.003246e+00
6.004391509622938e-05;2.991217e+00;3.996137e+00;2.992505e+00;1.003632e+00
6.007120497817741e-05;2.985759e+00;3.993254e+00;2.986742e+00;1.006513e+00
6.008174083243485e-05;2.983652e+00;3.992143e+00;2.984516e+00;1.007627e+00
6.009427205698520e-05;2.981146e+00;3.990845e+00;2.981919e+00;1.008927e+00
6.011218792853226e-05;2.977562e+00;3.989011e+00;2.978246e+00;1.010765e+00
6.013228890136020e-05;2.973542e+00;3.986967e+00;2.974155e+00;1.012812e+00
6.015505717177970e-05;2.968989e+00;3.984668e+00;2.969554e+00;1.015113e+00
6.019655161066915e-05;2.960690e+00;3.980498e+00;2.961213e+00;1.019285e+00
6.023408858596354e-05;2.953182e+00;3.976737e+00;2.953688e+00;1.023049e+00
6.036037929070156e-05;2.927924e+00;3.964104e+00;2.928418e+00;1.035686e+00
6.097400161165524e-05;2.805200e+00;3.902740e+00;2.805695e+00;1.097045e+00
6.158762393260891e-05;2.682475e+00;3.841375e+00;2.682972e+00;1.158402e+00
6.220124625356258e-05;2.559751e+00;3.780008e+00;2.560251e+00;1.219757e+00
6.281486857451626e-05;2.437026e+00;3.718639e+00;2.437530e+00;1.281109e+00
6.342849089546993e-05;2.314302e+00;3.657269e+00;2.314810e+00;1.342459e+00
6.404211321642362e-05;2.191577e+00;3.595897e+00;2.192091e+00;1.403806e+00
6.465573553737729e-05;2.068853e+00;3.534523e+00;2.069373e+00;1.465150e+00
6.475339178737729e-05;2.049322e+00;3.524756e+00;2.049843e+00;1.474913e+00
6.500000000000012e-05;2.000000e+00;3.500091e+00;2.000524e+00;1.499568e+00
6.500028170073396e-05;2.000056e+00;3.500063e+00;2.000465e+00;1.499598e+00
6.500084510220163e-05;2.000169e+00;3.500008e+00;2.000347e+00;1.499660e+00
6.500197190513700e-05;2.000394e+00;3.499899e+00;2.000115e+00;1.499784e+00
6.500360618205648e-05;2.000721e+00;3.499755e+00;1.999804e+00;1.499951e+00
6.500552403926975e-05;2.001105e+00;3.499618e+00;1.999503e+00;1.500115e+00
6.500762546019532e-05;2.001525e+00;3.499529e+00;1.999297e+00;1.500232e+00
6.501003538949989e-05;2.002007e+00;3.499521e+00;1.999249e+00;1.500272e+00
6.501251642409581e-05;2.002503e+00;3.499629e+00;1.999433e+00;1.500195e+00
6.501576595303269e-05;2.003153e+00;3.499925e+00;1.999989e+00;1.499937e+00
6.501978004755045e-05;2.003956e+00;3.500445e+00;2.000987e+00;1.499458e+00
6.502380162018122e-05;2.004760e+00;3.501053e+00;2.002169e+00;1.498884e+00
6.503168507834420e-05;2.006337e+00;3.502223e+00;2.004469e+00;1.497754e+00
6.503615902785702e-05;2.007232e+00;3.502793e+00;2.005598e+00;1.497195e+00
6.504080774611430e-05;2.008162e+00;3.503320e+00;2.006646e+00;1.496675e+00
6.504713864349580e-05;2.009428e+00;3.503987e+00;2.007975e+00;1.496012e+00
6.506607704485706e-05;2.013215e+00;3.505988e+00;2.011978e+00;1.494010e+00
6.507686309438463e-05;2.015373e+00;3.507138e+00;2.014280e+00;1.492857e+00
6.508925848317529e-05;2.017852e+00;3.508432e+00;2.016875e+00;1.491557e+00
6.510262185343973e-05;2.020524e+00;3.509806e+00;2.019628e+00;1.490178e+00
6.511842800245193e-05;2.023686e+00;3.511419e+00;2.022860e+00;1.488559e+00
6.513750752266694e-05;2.027502e+00;3.513354e+00;2.026734e+00;1.486620e+00
6.517027646940571e-05;2.034055e+00;3.516656e+00;2.033342e+00;1.483313e+00
6.521124045144789e-05;2.042248e+00;3.520767e+00;2.041568e+00;1.479199e+00
6.525155335400844e-05;2.050311e+00;3.524804e+00;2.049644e+00;1.475160e+00
6.546905446715631e-05;2.093811e+00;3.546554e+00;2.093149e+00;1.453404e+00
6.568655558030420e-05;2.137311e+00;3.568303e+00;2.136653e+00;1.431650e+00
6.590405669345207e-05;2.180811e+00;3.590052e+00;2.180156e+00;1.409896e+00
6.612155780659994e-05;2.224311e+00;3.611801e+00;2.223658e+00;1.388143e+00
6.633905891974781e-05;2.267812e+00;3.633550e+00;2.267159e+00;1.366391e+00
6.655656003289570e-05;2.311312e+00;3.655298e+00;2.310658e+00;1.344640e+00
6.677406114604357e-05;2.354812e+00;3.677047e+00;2.354157e+00;1.322889e+00
7.000000000000012e-05;3.000000e+00;3.999648e+00;2.999336e+00;1.000312e+00
7.000026574816785e-05;2.999947e+00;3.999674e+00;2.999390e+00;1.000284e+00
7.000079724450333e-05;2.999840e+00;3.999727e+00;2.999499e+00;1.000227e+00
7.000186023717428e-05;2.999628e+00;3.999829e+00;2.999714e+00;1.000115e+00
7.000349438941018e-05;2.999301e+00;3.999974e+00;3.000019e+00;9.999552e-01
7.000543420722190e-05;2.998913e+00;4.000114e+00;3.000316e+00;9.997983e-01
7.000753512571938e-05;2.998493e+00;4.000206e+00;3.000516e+00;9.996898e-01
7.000995866657843e-05;2.998008e+00;4.000217e+00;3.000558e+00;9.996598e-01
7.001240078573967e-05;2.997520e+00;4.000116e+00;3.000372e+00;9.997439e-01
7.001563360872845e-05;2.996873e+00;3.999829e+00;2.999818e+00;1.000011e+00
7.001958202112243e-05;2.996083e+00;3.999325e+00;2.998831e+00;1.000494e+00
7.002484628158320e-05;2.995031e+00;3.998543e+00;2.997287e+00;1.001256e+00
7.002908377281556e-05;2.994183e+00;3.997910e+00;2.996035e+00;1.001875e+00
7.003307011056217e-05;2.993386e+00;3.997362e+00;2.994945e+00;1.002416e+00
7.003637018999356e-05;2.992726e+00;3.996955e+00;2.994137e+00;1.002819e+00
7.004022482281501e-05;2.991955e+00;3.996525e+00;2.993279e+00;1.003246e+00
7.004391509623763e-05;2.991217e+00;3.996137e+00;2.992505e+00;1.003632e+00
7.007120497819445e-05;2.985759e+00;3.993254e+00;2.986742e+00;1.006513e+00
7.008174083245576e-05;2.983652e+00;3.992143e+00;2.984516e+00;1.007627e+00
7.009427205701066e-05;2.981146e+00;3.990845e+00;2.981919e+00;1.008927e+00
7.011218792856671e-05;2.977562e+00;3.989011e+00;2.978246e+00;1.010765e+00
7.013228890135503e-05;2.973542e+00;3.986967e+00;2.974155e+00;1.012812e+00
7.015505717180753e-05;2.968989e+00;3.984668e+00;2.969554e+00;1.015113e+00
7.019655161064378e-05;2.960690e+00;3.980498e+00;2.961213e+00;1.019285e+00
7.023408858597726e-05;2.953182e+00;3.976737e+00;2.953688e+00;1.023049e+00
7.036037929075467e-05;2.927924e+00;3.964104e+00;2.928418e+00;1.035686e+00
7.100923135636116e-05;2.798154e+00;3.899217e+00;2.798649e+00;1.100568e+00
7.165808342196765e-05;2.668383e+00;3.834328e+00;2.668881e+00;1.165447e+00
7.230693548757415e-05;2.538613e+00;3.769438e+00;2.539114e+00;1.230324e+00
7.295578755318065e-05;2.408842e+00;3.704545e+00;2.409347e+00;1.295198e+00
7.360463961878714e-05;2.279072e+00;3.639651e+00;2.279582e+00;1.360070e+00
7.425349168439363e-05;2.149302e+00;3.574756e+00;2.149817e+00;1.424938e+00
7.490234375000013e-05;2.019531e+00;3.509858e+00;2.020054e+00;1.489804e+00
7.500000000000014e-05;2.000000e+00;3.500091e+00;2.000524e+00;1.499568e+00
7.500028170073385e-05;2.000056e+00;3.500063e+00;2.000465e+00;1.499598e+00
7.500084510220125e-05;2.000169e+00;3.500008e+00;2.000347e+00;1.499660e+00
7.500197190513608e-05;2.000394e+00;3.499899e+00;2.000115e+00;1.499784e+00
7.500360618205692e-05;2.000721e+00;3.499755e+00;1.999804e+00;1.499951e+00
7.500552403926788e-05;2.001105e+00;3.499618e+00;1.999503e+00;1.500115e+00
7.500762546019347e-05;2.001525e+00;3.499529e+00;1.999297e+00;1.500232e+00
7.501003538949758e-05;2.002007e+00;3.499521e+00;1.999249e+00;1.500272e+00
7.501251642409414e-05;2.002503e+00;3.499629e+00;1.999433e+00;1.500195e+00
7.501576595303136e-05;2.003153e+00;3.499925e+00;1.999989e+00;1.499937e+00
7.501978004755009e-05;2.003956e+00;3.500445e+00;2.000987e+00;1.499458e+00
7.502380162018064e-05;2.004760e+00;3.501053e+00;2.002169e+00;1.498884e+00
7.503168507834463e-05;2.006337e+00;3.502223e+00;2.004469e+00;1.497754e+00
7.503615902785719e-05;2.007232e+00;3.502793e+00;2.005598e+00;1.497195e+00
7.504080774611507e-05;2.008162e+00;3.503320e+00;2.006646e+00;1.496675e+00
7.504713864349937e-05;2.009428e+00;3.503987e+00;2.007975e+00;1.496012e+00
7.506607704486115e-05;2.013215e+00;3.505988e+00;2.011978e+00;1.494010e+00
7.507686309439498e-05;2.015373e+00;3.507138e+00;2.014280e+00;1.492857e+00
7.508925848319416e-05;2.017852e+00;3.508432e+00;2.016875e+00;1.491557e+00
7.510262185345600e-05;2.020524e+00;3.509806e+00;2.019628e+00;1.490178e+00
7.511842800247134e-05;2.023686e+00;3.511419e+00;2.022860e+00;1.488559e+00
7.513750752268323e-05;2.027502e+00;3.513354e+00;2.026734e+00;1.486620e+00
7.517027646952741e-05;2.034055e+00;3.516656e+00;2.033342e+00;1.483313e+00
7.521124045151708e-05;2.042248e+00;3.520767e+00;2.041568e+00;1.479199e+00
7.525155335414895e-05;2.050311e+00;3.524804e+00;2.049644e+00;1.475160e+00
7.546905446731807e-05;2.093811e+00;3.546554e+00;2.093149e+00;1.453404e+00
7.568655558048718e-05;2.137311e+00;3.568303e+00;2.136653e+00;1.431650e+00
7.590405669365630e-05;2.180811e+00;3.590052e+00;2.180156e+00;1.409896e+00
7.612155780682541e-05;2.224311e+00;3.611801e+00;2.223658e+00;1.388143e+00
7.633905891999454e-05;2.267812e+00;3.633550e+00;2.267159e+00;1.366391e+00
7.655656003316365e-05;2.311312e+00;3.655298e+00;2.310658e+00;1.344640e+00
7.677406114633277e-05;2.354812e+00;3.677047e+00;2.354157e+00;1.322889e+00
8.000000000000013e-05;3.000000e+00;3.999648e+00;2.999336e+00;1.000312e+00
8.000026574816462e-05;2.999947e+00;3.999674e+00;2.999390e+00;1.000284e+00
8.000079724449363e-05;2.999840e+00;3.999727e+00;2.999499e+00;1.000227e+00
8.000186023715164e-05;2.999628e+00;3.999829e+00;2.999714e+00;1.000115e+00
8.000349438938574e-05;2.999301e+00;3.999974e+00;3.000019e+00;9.999552e-01
8.000543420720214e-05;2.998913e+00;4.000114e+00;3.000316e+00;9.997983e-01
8.000753512569855e-05;2.998493e+00;4.000206e+00;3.000516e+00;9.996898e-01
8.000995866655937e-05;2.998008e+00;4.000217e+00;3.000558e+00;9.996598e-01
8.001240078571358e-05;2.997520e+00;4.000116e+00;3.000372e+00;9.997439e-01
8.001563360869882e-05;2.996873e+00;3.999829e+00;2.999818e+00;1.000011e+00
8.001958202107810e-05;2.996083e+00;3.999325e+00;2.998831e+00;1.000494e+00
8.002484628154543e-05;2.995031e+00;3.998543e+00;2.997287e+00;1.001256e+00
8.002908377279244e-05;2.994183e+00;3.997910e+00;2.996035e+00;1.001875e+00
8.003307011053970e-05;2.993386e+00;3.997362e+00;2.994945e+00;1.002416e+00
8.003637018997037e-05;2.992726e+00;3.996955e+00;2.994137e+00;1.002819e+00
8.004022482279206e-05;2.991955e+00;3.996525e+00;2.993279e+00;1.003246e+00
8.004391509621069e-05;2.991217e+00;3.996137e+00;2.992505e+00;1.003632e+00
8.007120497813975e-05;2.985759e+00;3.993254e+00;2.986742e+00;1.006513e+00
8.008174083239370e-05;2.983652e+00;3.992143e+00;2.984516e+00;1.007627e+00
8.009427205694737e-05;2.981146e+00;3.990845e+00;2.981919e+00;1.008927e+00
8.011218792840443e-05;2.977562e+00;3.989011e+00;2.978246e+00;1.010765e+00
8.013228890131471e-05;2.973542e+00;3.986967e+00;2.974155e+00;1.012812e+00
8.015505717160959e-05;2.968989e+00;3.984668e+00;2.969554e+00;1.015113e+00
8.019655161065154e-05;2.960690e+00;3.980498e+00;2.961213e+00;1.019285e+00
8.023408858579639e-05;2.953182e+00;3.976737e+00;2.953688e+00;1.023049e+00
8.036037929041086e-05;2.927924e+00;3.964104e+00;2.928418e+00;1.035686e+00
8.100923135606648e-05;2.798154e+00;3.899217e+00;2.798649e+00;1.100568e+00
8.165808342172208e-05;2.668383e+00;3.834328e+00;2.668881e+00;1.165447e+00
8.230693548737770e-05;2.538613e+00;3.769438e+00;2.539114e+00;1.230324e+00
8.295578755303331e-05;2.408842e+00;3.704545e+00;2.409347e+00;1.295198e+00
8.360463961868893e-05;2.279072e+00;3.639651e+00;2.279582e+00;1.360070e+00
8.425349168434453e-05;2.149302e+00;3.574756e+00;2.149817e+00;1.424938e+00
8.490234375000015e-05;2.019531e+00;3.509858e+00;2.020054e+00;1.489804e+00
8.500000000000014e-05;2.000000e+00;3.500091e+00;2.000524e+00;1.499568e+00
8.500028170073397e-05;2.000056e+00;3.500063e+00;2.000465e+00;1.499598e+00
8.500084510220162e-05;2.000169e+00;3.500008e+00;2.000347e+00;1.499660e+00
8.500197190513692e-05;2.000394e+00;3.499899e+00;2.000115e+00;1.499784e+00
8.500360618205700e-05;2.000721e+00;3.499755e+00;1.999804e+00;1.499951e+00
8.500552403926897e-05;2.001105e+00;3.499618e+00;1.999503e+00;1.500115e+00
8.500762546019473e-05;2.001525e+00;3.499529e+00;1.999297e+00;1.500232e+00
8.501003538949904e-05;2.002007e+00;3.499521e+00;1.999249e+00;1.500272e+00
8.501251642409533e-05;2.002503e+00;3.499629e+00;1.999433e+00;1.500195e+00
8.501576595303240e-05;2.003153e+00;3.499925e+00;1.999989e+00;1.499937e+00
8.501978004755072e-05;2.003956e+00;3.500445e+00;2.000987e+00;1.499458e+00
8.502380162018118e-05;2.004760e+00;3.501053e+00;2.002169e+00;1.498884e+00
8.503168507834471e-05;2.006337e+00;3.502223e+00;2.004469e+00;1.497754e+00
8.503615902785740e-05;2.007232e+00;3.502793e+00;2.005598e+00;1.497195e+00
8.504080774611521e-05;2.008162e+00;3.503320e+00;2.006646e+00;1.496675e+00
8.504713864349844e-05;2.009428e+00;3.503987e+00;2.007975e+00;1.496012e+00
8.506607704486138e-05;2.013215e+00;3.505988e+00;2.011978e+00;1.494010e+00
8.507686309439159e-05;2.015373e+00;3.507138e+00;2.014280e+00;1.492857e+00
8.508925848318859e-05;2.017852e+00;3.508432e+00;2.016875e+00;1.491557e+00
8.510262185345314e-05;2.020524e+00;3.509806e+00;2.019628e+00;1.490178e+00
8.511842800246415e-05;2.023686e+00;3.511419e+00;2.022860e+00;1.488559e+00
8.513750752267536e-05;2.027502e+00;3.513354e+00;2.026734e+00;1.486620e+00
8.517027646947626e-05;2.034055e+00;3.516656e+00;2.033342e+00;1.483313e+00
8.521124045146890e-05;2.042248e+00;3.520767e+00;2.041568e+00;1.479199e+00
8.525155335401658e-05;2.050311e+00;3.524804e+00;2.049644e+00;1.475160e+00
8.546905446714980e-05;2.093811e+00;3.546554e+00;2.093149e+00;1.453404e+00
8.568655558028302e-05;2.137311e+00;3.568303e+00;2.136653e+00;1.431650e+00
8.590405669341625e-05;2.180811e+00;3.590052e+00;2.180156e+00;1.409896e+00
8.612155780654948e-05;2.224311e+00;3.611801e+00;2.223658e+00;1.388143e+00
8.633905891968271e-05;2.267812e+00;3.633550e+00;2.267159e+00;1.366391e+00
8.655656003281593e-05;2.311312e+00;3.655298e+00;2.310658e+00;1.344640e+00
8.677406114594915e-05;2.354812e+00;3.677047e+00;2.354157e+00;1.322889e+00
9.000000000000015e-05;3.000000e+00;3.999648e+00;2.999336e+00;1.000312e+00
9.000026574816877e-05;2.999947e+00;3.999674e+00;2.999390e+00;1.000284e+00
9.000079724450600e-05;2.999840e+00;3.999727e+00;2.999499e+00;1.000227e+00
9.000186023718046e-05;2.999628e+00;3.999829e+00;2.999714e+00;1.000115e+00
9.000349438941709e-05;2.999301e+00;3.999974e+00;3.000019e+00;9.999552e-01
9.000543420722706e-05;2.998913e+00;4.000114e+00;3.000316e+00;9.997983e-01
9.000753512572472e-05;2.998493e+00;4.000206e+00;3.000516e+00;9.996898e-01
9.000995866658313e-05;2.998008e+00;4.000217e+00;3.000558e+00;9.996598e-01
9.001240078574634e-05;2.997520e+00;4.000116e+00;3.000372e+00;9.997439e-01
9.001563360873620e-05;2.996873e+00;3.999829e+00;2.999818e+00;1.000011e+00
9.001958202113445e-05;2.996083e+00;3.999325e+00;2.998831e+00;1.000494e+00
9.002484628159334e-05;2.995031e+00;3.998543e+00;2.997287e+00;1.001256e+00
9.002908377282123e-05;2.994183e+00;3.997910e+00;2.996035e+00;1.001875e+00
9.003307011056731e-05;2.993386e+00;3.997362e+00;2.994945e+00;1.002416e+00
9.003637018999868e-05;2.992726e+00;3.996955e+00;2.994137e+00;1.002819e+00
9.004022482281976e-05;2.991955e+00;3.996525e+00;2.993279e+00;1.003246e+00
9.004391509624350e-05;2.991217e+00;3.996137e+00;2.992505e+00;1.003632e+00
9.007120497820566e-05;2.985759e+00;3.993254e+00;2.986742e+00;1.006513e+00
9.008174083246787e-05;2.983652e+00;3.992143e+00;2.984516e+00;1.007627e+00
9.009427205701846e-05;2.981146e+00;3.990845e+00;2.981919e+00;1.008927e+00
9.011218792861830e-05;2.977562e+00;3.989011e+00;2.978246e+00;1.010765e+00
9.013228890137252e-05;2.973542e+00;3.986967e+00;2.974155e+00;1.012812e+00
9.015505717188986e-05;2.968989e+00;3.984668e+00;2.969554e+00;1.015113e+00
9.019655161064780e-05;2.960690e+00;3.980498e+00;2.961213e+00;1.019285e+00
9.023408858605516e-05;2.953182e+00;3.976737e+00;2.953688e+00;1.023049e+00
9.036037929091261e-05;2.927924e+00;3.964104e+00;2.928418e+00;1.035686e+00
9.100923135649655e-05;2.798154e+00;3.899217e+00;2.798649e+00;1.100568e+00
9.165808342208049e-05;2.668383e+00;3.834328e+00;2.668881e+00;1.165447e+00
9.230693548766443e-05;2.538613e+00;3.769438e+00;2.539114e+00;1.230324e+00
9.295578755324837e-05;2.408842e+00;3.704545e+00;2.409347e+00;1.295198e+00
9.360463961883230e-05;2.279072e+00;3.639651e+00;2.279582e+00;1.360070e+00
9.425349168441624e-05;2.149302e+00;3.574756e+00;2.149817e+00;1.424938e+00
9.490234375000018e-05;2.019531e+00;3.509858e+00;2.020054e+00;1.489804e+00
9.500000000000017e-05;2.000000e+00;3.500091e+00;2.000524e+00;1.499568e+00
9.500028170073405e-05;2.000056e+00;3.500063e+00;2.000465e+00;1.499598e+00
9.500084510220182e-05;2.000169e+00;3.500008e+00;2.000347e+00;1.499660e+00
9.500197190513736e-05;2.000394e+00;3.499899e+00;2.000115e+00;1.499784e+00
9.500360618205649e-05;2.000721e+00;3.499755e+00;1.999804e+00;1.499951e+00
9.500552403926989e-05;2.001105e+00;3.499618e+00;1.999503e+00;1.500115e+00
9.500762546019561e-05;2.001525e+00;3.499529e+00;1.999297e+00;1.500232e+00
9.501003538950013e-05;2.002007e+00;3.499521e+00;1.999249e+00;1.500272e+00
9.501251642409591e-05;2.002503e+00;3.499629e+00;1.999433e+00;1.500195e+00
9.501576595303256e-05;2.003153e+00;3.499925e+00;1.999989e+00;1.499937e+00
9.501978004755005e-05;2.003956e+00;3.500445e+00;2.000987e+00;1.499458e+00
9.502380162018084e-05;2.004760e+00;3.501053e+00;2.002169e+00;1.498884e+00
9.503168507834367e-05;2.006337e+00;3.502223e+00;2.004469e+00;1.497754e+00
9.503615902785647e-05;2.007232e+00;3.502793e+00;2.005598e+00;1.497195e+00
9.504080774611369e-05;2.008162e+00;3.503320e+00;2.006646e+00;1.496675e+00
9.504713864349522e-05;2.009428e+00;3.503987e+00;2.007975e+00;1.496012e+00
9.506607704485787e-05;2.013215e+00;3.505988e+00;2.011978e+00;1.494010e+00
9.507686309438052e-05;2.015373e+00;3.507138e+00;2.014280e+00;1.492857e+00
9.508925848316525e-05;2.017852e+00;3.508432e+00;2.016875e+00;1.491557e+00
9.510262185342689e-05;2.020524e+00;3.509806e+00;2.019628e+00;1.490178e+00
9.511842800243699e-05;2.023686e+00;3.511419e+00;2.022860e+00;1.488559e+00
9.513750752265031e-05;2.027502e+00;3.513354e+00;2.026734e+00;1.486620e+00
9.517027646934252e-05;2.034055e+00;3.516656e+00;2.033342e+00;1.483313e+00
9.521124045139669e-05;2.042248e+00;3.520767e+00;2.041568e+00;1.479199e+00
9.525155335389057e-05;2.050311e+00;3.524804e+00;2.049644e+00;1.475160e+00
9.546905446702906e-05;2.093811e+00;3.546554e+00;2.093149e+00;1.453404e+00
9.568655558016756e-05;2.137311e+00;3.568303e+00;2.136653e+00;1.431650e+00
9.590405669330605e-05;2.180811e+00;3.590052e+00;2.180156e+00;1.409896e+00
9.612155780644455e-05;2.224311e+00;3.611801e+00;2.223658e+00;1.388143e+00
9.633905891958304e-05;2.267812e+00;3.633550e+00;2.267159e+00;1.366391e+00
9.655656003272153e-05;2.311312e+00;3.655298e+00;2.310658e+00;1.344640e+00
9.677406114586003e-05;2.354812e+00;3.677047e+00;2.354157e+00;1.322889e+00
9.994830020796103e-05;2.989660e+00;3.994478e+00;2.988996e+00;1.005482e+00
9.999999999999999e-05;3.000000e+00;3.999648e+00;2.999336e+00;1.000312e+00